# 178 angles,  1 tensor ranks for 0=projectile
@subtitle   "11Li + d g.s with Daehnick OMP;"                                               
@legend ON
@legend x1 0.2
@legend y1 0.8
@g0 type LOGY
@yaxis ticklabel format power
@xaxis label "Scattering angle (degrees)"
@yaxis label "Cross section (mb/sr)"
@legend string   0 "Partition=  1 Excit=  1 near/far= 1"
#legend string   0 "Lab energy =   15.0000"
@s0 linestyle   1
#  Theta       sigma       iT11        T20         T21         T22         Kyy for projectile
   3.000      0.1595E+06
   4.000      0.4730E+05
   5.000      0.1854E+05
   6.000       8943.    
   7.000       5145.    
   8.000       3444.    
   9.000       2599.    
   10.00       2136.    
   11.00       1856.    
   12.00       1665.    
   13.00       1522.    
   14.00       1404.    
   15.00       1299.    
   16.00       1202.    
   17.00       1111.    
   18.00       1022.    
   19.00       937.4    
   20.00       855.3    
   21.00       776.4    
   22.00       700.8    
   23.00       628.8    
   24.00       560.7    
   25.00       496.8    
   26.00       437.0    
   27.00       381.7    
   28.00       330.8    
   29.00       284.3    
   30.00       242.2    
   31.00       204.4    
   32.00       170.6    
   33.00       140.9    
   34.00       114.8    
   35.00       92.25    
   36.00       72.94    
   37.00       56.62    
   38.00       43.00    
   39.00       31.83    
   40.00       22.84    
   41.00       15.75    
   42.00       10.34    
   43.00       6.346    
   44.00       3.559    
   45.00       1.770    
   46.00      0.7915    
   47.00      0.4529    
   48.00      0.6035    
   49.00       1.111    
   50.00       1.861    
   51.00       2.756    
   52.00       3.715    
   53.00       4.674    
   54.00       5.579    
   55.00       6.394    
   56.00       7.090    
   57.00       7.649    
   58.00       8.062    
   59.00       8.327    
   60.00       8.449    
   61.00       8.434    
   62.00       8.296    
   63.00       8.050    
   64.00       7.711    
   65.00       7.296    
   66.00       6.824    
   67.00       6.311    
   68.00       5.773    
   69.00       5.226    
   70.00       4.684    
   71.00       4.158    
   72.00       3.659    
   73.00       3.195    
   74.00       2.773    
   75.00       2.398    
   76.00       2.072    
   77.00       1.798    
   78.00       1.576    
   79.00       1.404    
   80.00       1.280    
   81.00       1.201    
   82.00       1.163    
   83.00       1.162    
   84.00       1.191    
   85.00       1.247    
   86.00       1.323    
   87.00       1.415    
   88.00       1.517    
   89.00       1.623    
   90.00       1.730    
   91.00       1.832    
   92.00       1.927    
   93.00       2.011    
   94.00       2.081    
   95.00       2.135    
   96.00       2.172    
   97.00       2.190    
   98.00       2.189    
   99.00       2.170    
   100.0       2.132    
   101.0       2.077    
   102.0       2.006    
   103.0       1.921    
   104.0       1.825    
   105.0       1.719    
   106.0       1.605    
   107.0       1.487    
   108.0       1.367    
   109.0       1.248    
   110.0       1.131    
   111.0       1.020    
   112.0      0.9163    
   113.0      0.8218    
   114.0      0.7382    
   115.0      0.6669    
   116.0      0.6087    
   117.0      0.5644    
   118.0      0.5343    
   119.0      0.5182    
   120.0      0.5159    
   121.0      0.5266    
   122.0      0.5492    
   123.0      0.5827    
   124.0      0.6254    
   125.0      0.6757    
   126.0      0.7318    
   127.0      0.7918    
   128.0      0.8539    
   129.0      0.9160    
   130.0      0.9765    
   131.0       1.034    
   132.0       1.086    
   133.0       1.132    
   134.0       1.171    
   135.0       1.201    
   136.0       1.223    
   137.0       1.237    
   138.0       1.243    
   139.0       1.240    
   140.0       1.231    
   141.0       1.216    
   142.0       1.198    
   143.0       1.177    
   144.0       1.156    
   145.0       1.138    
   146.0       1.124    
   147.0       1.117    
   148.0       1.120    
   149.0       1.135    
   150.0       1.164    
   151.0       1.211    
   152.0       1.276    
   153.0       1.362    
   154.0       1.470    
   155.0       1.601    
   156.0       1.756    
   157.0       1.935    
   158.0       2.137    
   159.0       2.363    
   160.0       2.610    
   161.0       2.878    
   162.0       3.163    
   163.0       3.464    
   164.0       3.778    
   165.0       4.100    
   166.0       4.429    
   167.0       4.758    
   168.0       5.086    
   169.0       5.407    
   170.0       5.718    
   171.0       6.014    
   172.0       6.291    
   173.0       6.545    
   174.0       6.774    
   175.0       6.973    
   176.0       7.140    
   177.0       7.272    
   178.0       7.368    
   179.0       7.427    
   180.0       7.446    
 END
