# 178 angles,  1 tensor ranks for 0=projectile
@subtitle   "7Li + d g.s with DA1p OMP;"                                                    
@legend ON
@legend x1 0.2
@legend y1 0.8
@g0 type LOGY
@yaxis ticklabel format power
@xaxis label "Scattering angle (degrees)"
@yaxis label "Cross section (mb/sr)"
@legend string   0 "Partition=  1 Excit=  1 near/far= 1"
#legend string   0 "Lab energy =   14.5700"
@s0 linestyle   1
#  Theta       sigma       iT11        T20         T21         T22         Kyy for projectile
   3.000      0.1573E+06
   4.000      0.4357E+05
   5.000      0.1561E+05
   6.000       6847.    
   7.000       3667.    
   8.000       2402.    
   9.000       1862.    
   10.00       1610.    
   11.00       1475.    
   12.00       1384.    
   13.00       1307.    
   14.00       1232.    
   15.00       1154.    
   16.00       1072.    
   17.00       987.6    
   18.00       902.1    
   19.00       816.9    
   20.00       733.6    
   21.00       653.4    
   22.00       577.2    
   23.00       505.8    
   24.00       439.8    
   25.00       379.4    
   26.00       324.8    
   27.00       275.9    
   28.00       232.5    
   29.00       194.5    
   30.00       161.4    
   31.00       132.9    
   32.00       108.7    
   33.00       88.17    
   34.00       71.05    
   35.00       56.91    
   36.00       45.36    
   37.00       36.04    
   38.00       28.65    
   39.00       22.88    
   40.00       18.49    
   41.00       15.26    
   42.00       12.99    
   43.00       11.51    
   44.00       10.70    
   45.00       10.43    
   46.00       10.59    
   47.00       11.09    
   48.00       11.87    
   49.00       12.84    
   50.00       13.95    
   51.00       15.15    
   52.00       16.38    
   53.00       17.59    
   54.00       18.74    
   55.00       19.79    
   56.00       20.71    
   57.00       21.46    
   58.00       22.03    
   59.00       22.39    
   60.00       22.53    
   61.00       22.44    
   62.00       22.13    
   63.00       21.60    
   64.00       20.86    
   65.00       19.94    
   66.00       18.85    
   67.00       17.64    
   68.00       16.33    
   69.00       14.95    
   70.00       13.56    
   71.00       12.18    
   72.00       10.85    
   73.00       9.613    
   74.00       8.498    
   75.00       7.535    
   76.00       6.749    
   77.00       6.162    
   78.00       5.786    
   79.00       5.631    
   80.00       5.699    
   81.00       5.988    
   82.00       6.488    
   83.00       7.184    
   84.00       8.058    
   85.00       9.086    
   86.00       10.24    
   87.00       11.49    
   88.00       12.81    
   89.00       14.16    
   90.00       15.51    
   91.00       16.82    
   92.00       18.08    
   93.00       19.24    
   94.00       20.28    
   95.00       21.18    
   96.00       21.92    
   97.00       22.48    
   98.00       22.85    
   99.00       23.03    
   100.0       23.02    
   101.0       22.81    
   102.0       22.42    
   103.0       21.85    
   104.0       21.12    
   105.0       20.24    
   106.0       19.24    
   107.0       18.13    
   108.0       16.95    
   109.0       15.70    
   110.0       14.43    
   111.0       13.15    
   112.0       11.89    
   113.0       10.68    
   114.0       9.526    
   115.0       8.461    
   116.0       7.500    
   117.0       6.657    
   118.0       5.948    
   119.0       5.380    
   120.0       4.962    
   121.0       4.696    
   122.0       4.585    
   123.0       4.625    
   124.0       4.811    
   125.0       5.135    
   126.0       5.587    
   127.0       6.153    
   128.0       6.818    
   129.0       7.567    
   130.0       8.381    
   131.0       9.242    
   132.0       10.13    
   133.0       11.03    
   134.0       11.91    
   135.0       12.77    
   136.0       13.58    
   137.0       14.32    
   138.0       14.99    
   139.0       15.57    
   140.0       16.06    
   141.0       16.44    
   142.0       16.70    
   143.0       16.86    
   144.0       16.90    
   145.0       16.84    
   146.0       16.67    
   147.0       16.41    
   148.0       16.06    
   149.0       15.64    
   150.0       15.16    
   151.0       14.64    
   152.0       14.08    
   153.0       13.52    
   154.0       12.96    
   155.0       12.41    
   156.0       11.90    
   157.0       11.44    
   158.0       11.03    
   159.0       10.69    
   160.0       10.43    
   161.0       10.26    
   162.0       10.17    
   163.0       10.16    
   164.0       10.24    
   165.0       10.40    
   166.0       10.64    
   167.0       10.94    
   168.0       11.29    
   169.0       11.69    
   170.0       12.12    
   171.0       12.57    
   172.0       13.02    
   173.0       13.45    
   174.0       13.86    
   175.0       14.23    
   176.0       14.55    
   177.0       14.81    
   178.0       15.01    
   179.0       15.12    
   180.0       15.16    
 END
@legend string   1 "Partition=  1 Excit=  2 near/far= 1"
#legend string   0 "Lab energy =   14.5700"
@s1 linestyle   2
#  Theta       sigma       iT11        T20         T21         T22         Kyy for projectile
   3.000       3.508    
   4.000       3.555    
   5.000       3.629    
   6.000       3.735    
   7.000       3.875    
   8.000       4.047    
   9.000       4.250    
   10.00       4.479    
   11.00       4.734    
   12.00       5.017    
   13.00       5.329    
   14.00       5.668    
   15.00       6.029    
   16.00       6.403    
   17.00       6.780    
   18.00       7.152    
   19.00       7.514    
   20.00       7.861    
   21.00       8.186    
   22.00       8.482    
   23.00       8.740    
   24.00       8.954    
   25.00       9.118    
   26.00       9.233    
   27.00       9.299    
   28.00       9.317    
   29.00       9.287    
   30.00       9.213    
   31.00       9.097    
   32.00       8.944    
   33.00       8.760    
   34.00       8.554    
   35.00       8.333    
   36.00       8.101    
   37.00       7.864    
   38.00       7.629    
   39.00       7.400    
   40.00       7.181    
   41.00       6.977    
   42.00       6.790    
   43.00       6.621    
   44.00       6.471    
   45.00       6.339    
   46.00       6.225    
   47.00       6.128    
   48.00       6.045    
   49.00       5.973    
   50.00       5.911    
   51.00       5.855    
   52.00       5.803    
   53.00       5.754    
   54.00       5.704    
   55.00       5.652    
   56.00       5.596    
   57.00       5.536    
   58.00       5.472    
   59.00       5.402    
   60.00       5.329    
   61.00       5.252    
   62.00       5.173    
   63.00       5.091    
   64.00       5.010    
   65.00       4.929    
   66.00       4.851    
   67.00       4.776    
   68.00       4.706    
   69.00       4.642    
   70.00       4.584    
   71.00       4.531    
   72.00       4.486    
   73.00       4.447    
   74.00       4.413    
   75.00       4.385    
   76.00       4.361    
   77.00       4.340    
   78.00       4.322    
   79.00       4.305    
   80.00       4.288    
   81.00       4.270    
   82.00       4.249    
   83.00       4.226    
   84.00       4.198    
   85.00       4.167    
   86.00       4.130    
   87.00       4.089    
   88.00       4.043    
   89.00       3.993    
   90.00       3.939    
   91.00       3.882    
   92.00       3.823    
   93.00       3.762    
   94.00       3.701    
   95.00       3.641    
   96.00       3.582    
   97.00       3.527    
   98.00       3.475    
   99.00       3.428    
   100.0       3.387    
   101.0       3.351    
   102.0       3.323    
   103.0       3.301    
   104.0       3.286    
   105.0       3.279    
   106.0       3.278    
   107.0       3.284    
   108.0       3.297    
   109.0       3.316    
   110.0       3.340    
   111.0       3.369    
   112.0       3.403    
   113.0       3.440    
   114.0       3.481    
   115.0       3.524    
   116.0       3.570    
   117.0       3.618    
   118.0       3.668    
   119.0       3.719    
   120.0       3.772    
   121.0       3.826    
   122.0       3.880    
   123.0       3.936    
   124.0       3.992    
   125.0       4.050    
   126.0       4.107    
   127.0       4.165    
   128.0       4.222    
   129.0       4.279    
   130.0       4.334    
   131.0       4.388    
   132.0       4.438    
   133.0       4.485    
   134.0       4.528    
   135.0       4.564    
   136.0       4.594    
   137.0       4.616    
   138.0       4.629    
   139.0       4.632    
   140.0       4.624    
   141.0       4.605    
   142.0       4.574    
   143.0       4.531    
   144.0       4.475    
   145.0       4.407    
   146.0       4.327    
   147.0       4.236    
   148.0       4.135    
   149.0       4.025    
   150.0       3.908    
   151.0       3.785    
   152.0       3.659    
   153.0       3.531    
   154.0       3.404    
   155.0       3.279    
   156.0       3.158    
   157.0       3.045    
   158.0       2.940    
   159.0       2.846    
   160.0       2.762    
   161.0       2.692    
   162.0       2.635    
   163.0       2.593    
   164.0       2.564    
   165.0       2.548    
   166.0       2.546    
   167.0       2.555    
   168.0       2.575    
   169.0       2.604    
   170.0       2.640    
   171.0       2.681    
   172.0       2.725    
   173.0       2.770    
   174.0       2.814    
   175.0       2.855    
   176.0       2.891    
   177.0       2.921    
   178.0       2.943    
   179.0       2.957    
   180.0       2.961    
 END
