# 178 angles,  1 tensor ranks for 0=projectile
@subtitle   "7Li + d g.s with DA1p OMP;"                                                    
@legend ON
@legend x1 0.2
@legend y1 0.8
@g0 type LOGY
@yaxis ticklabel format power
@xaxis label "Scattering angle (degrees)"
@yaxis label "Cross section (mb/sr)"
@legend string   0 "Partition=  1 Excit=  1 near/far= 1"
#legend string   0 "Lab energy =   14.5700"
@s0 linestyle   1
#  Theta       sigma       iT11        T20         T21         T22         Kyy for projectile
   3.000      0.1695E+06
   4.000      0.5104E+05
   5.000      0.2062E+05
   6.000      0.1041E+05
   7.000       6310.    
   8.000       4430.    
   9.000       3459.    
   10.00       2896.    
   11.00       2530.    
   12.00       2264.    
   13.00       2052.    
   14.00       1869.    
   15.00       1705.    
   16.00       1553.    
   17.00       1410.    
   18.00       1274.    
   19.00       1146.    
   20.00       1024.    
   21.00       909.6    
   22.00       802.3    
   23.00       702.4    
   24.00       610.1    
   25.00       525.4    
   26.00       448.5    
   27.00       379.0    
   28.00       317.0    
   29.00       262.0    
   30.00       213.9    
   31.00       172.2    
   32.00       136.4    
   33.00       106.2    
   34.00       80.97    
   35.00       60.30    
   36.00       43.68    
   37.00       30.61    
   38.00       20.62    
   39.00       13.24    
   40.00       8.068    
   41.00       4.698    
   42.00       2.774    
   43.00       1.974    
   44.00       2.014    
   45.00       2.648    
   46.00       3.665    
   47.00       4.891    
   48.00       6.184    
   49.00       7.434    
   50.00       8.558    
   51.00       9.497    
   52.00       10.22    
   53.00       10.69    
   54.00       10.93    
   55.00       10.94    
   56.00       10.73    
   57.00       10.34    
   58.00       9.791    
   59.00       9.122    
   60.00       8.367    
   61.00       7.560    
   62.00       6.734    
   63.00       5.917    
   64.00       5.136    
   65.00       4.413    
   66.00       3.767    
   67.00       3.210    
   68.00       2.753    
   69.00       2.400    
   70.00       2.153    
   71.00       2.011    
   72.00       1.967    
   73.00       2.016    
   74.00       2.146    
   75.00       2.348    
   76.00       2.609    
   77.00       2.915    
   78.00       3.254    
   79.00       3.613    
   80.00       3.978    
   81.00       4.339    
   82.00       4.684    
   83.00       5.003    
   84.00       5.288    
   85.00       5.531    
   86.00       5.728    
   87.00       5.874    
   88.00       5.967    
   89.00       6.006    
   90.00       5.990    
   91.00       5.921    
   92.00       5.801    
   93.00       5.635    
   94.00       5.427    
   95.00       5.181    
   96.00       4.904    
   97.00       4.601    
   98.00       4.279    
   99.00       3.944    
   100.0       3.602    
   101.0       3.260    
   102.0       2.924    
   103.0       2.599    
   104.0       2.290    
   105.0       2.002    
   106.0       1.739    
   107.0       1.503    
   108.0       1.298    
   109.0       1.125    
   110.0      0.9851    
   111.0      0.8793    
   112.0      0.8070    
   113.0      0.7675    
   114.0      0.7591    
   115.0      0.7800    
   116.0      0.8275    
   117.0      0.8988    
   118.0      0.9906    
   119.0       1.099    
   120.0       1.222    
   121.0       1.353    
   122.0       1.490    
   123.0       1.630    
   124.0       1.767    
   125.0       1.899    
   126.0       2.023    
   127.0       2.135    
   128.0       2.234    
   129.0       2.317    
   130.0       2.382    
   131.0       2.429    
   132.0       2.457    
   133.0       2.466    
   134.0       2.456    
   135.0       2.428    
   136.0       2.384    
   137.0       2.325    
   138.0       2.253    
   139.0       2.172    
   140.0       2.084    
   141.0       1.992    
   142.0       1.900    
   143.0       1.811    
   144.0       1.729    
   145.0       1.657    
   146.0       1.599    
   147.0       1.559    
   148.0       1.539    
   149.0       1.543    
   150.0       1.572    
   151.0       1.630    
   152.0       1.718    
   153.0       1.837    
   154.0       1.988    
   155.0       2.172    
   156.0       2.388    
   157.0       2.636    
   158.0       2.914    
   159.0       3.220    
   160.0       3.552    
   161.0       3.907    
   162.0       4.283    
   163.0       4.674    
   164.0       5.078    
   165.0       5.490    
   166.0       5.905    
   167.0       6.318    
   168.0       6.726    
   169.0       7.123    
   170.0       7.504    
   171.0       7.865    
   172.0       8.202    
   173.0       8.509    
   174.0       8.784    
   175.0       9.023    
   176.0       9.223    
   177.0       9.381    
   178.0       9.495    
   179.0       9.565    
   180.0       9.588    
 END
