# 178 angles,  1 tensor ranks for 0=projectile
@subtitle   "7Li + d g.s with paper 7Li(dd) at 14,7 MeV OMP;"                               
@legend ON
@legend x1 0.2
@legend y1 0.8
@g0 type LOGY
@yaxis ticklabel format power
@xaxis label "Scattering angle (degrees)"
@yaxis label "Cross section (mb/sr)"
@legend string   0 "Partition=  1 Excit=  1 near/far= 1"
#legend string   0 "Lab energy =   14.7000"
@s0 linestyle   1
#  Theta       sigma       iT11        T20         T21         T22         Kyy for projectile
   3.000      0.7865    
   4.000      0.6888    
   5.000      0.6238    
   6.000      0.6205    
   7.000      0.7067    
   8.000      0.9067    
   9.000       1.239    
   10.00       1.715    
   11.00       2.337    
   12.00       3.097    
   13.00       3.978    
   14.00       4.956    
   15.00       5.995    
   16.00       7.057    
   17.00       8.100    
   18.00       9.080    
   19.00       9.954    
   20.00       10.69    
   21.00       11.25    
   22.00       11.62    
   23.00       11.78    
   24.00       11.74    
   25.00       11.50    
   26.00       11.10    
   27.00       10.54    
   28.00       9.888    
   29.00       9.169    
   30.00       8.435    
   31.00       7.733    
   32.00       7.108    
   33.00       6.602    
   34.00       6.249    
   35.00       6.077    
   36.00       6.104    
   37.00       6.340    
   38.00       6.783    
   39.00       7.423    
   40.00       8.239    
   41.00       9.204    
   42.00       10.29    
   43.00       11.44    
   44.00       12.64    
   45.00       13.83    
   46.00       14.97    
   47.00       16.04    
   48.00       16.99    
   49.00       17.79    
   50.00       18.43    
   51.00       18.90    
   52.00       19.18    
   53.00       19.28    
   54.00       19.21    
   55.00       18.98    
   56.00       18.61    
   57.00       18.11    
   58.00       17.53    
   59.00       16.87    
   60.00       16.18    
   61.00       15.46    
   62.00       14.74    
   63.00       14.04    
   64.00       13.37    
   65.00       12.73    
   66.00       12.13    
   67.00       11.57    
   68.00       11.04    
   69.00       10.53    
   70.00       10.03    
   71.00       9.515    
   72.00       8.985    
   73.00       8.422    
   74.00       7.817    
   75.00       7.163    
   76.00       6.459    
   77.00       5.708    
   78.00       4.919    
   79.00       4.109    
   80.00       3.298    
   81.00       2.511    
   82.00       1.780    
   83.00       1.138    
   84.00      0.6190    
   85.00      0.2582    
   86.00      0.8812E-01
   87.00      0.1373    
   88.00      0.4285    
   89.00      0.9770    
   90.00       1.789    
   91.00       2.861    
   92.00       4.178    
   93.00       5.714    
   94.00       7.431    
   95.00       9.282    
   96.00       11.21    
   97.00       13.15    
   98.00       15.04    
   99.00       16.81    
   100.0       18.38    
   101.0       19.68    
   102.0       20.68    
   103.0       21.31    
   104.0       21.55    
   105.0       21.37    
   106.0       20.80    
   107.0       19.85    
   108.0       18.58    
   109.0       17.05    
   110.0       15.36    
   111.0       13.63    
   112.0       11.98    
   113.0       10.56    
   114.0       9.524    
   115.0       9.032    
   116.0       9.237    
   117.0       10.29    
   118.0       12.31    
   119.0       15.43    
   120.0       19.72    
   121.0       25.23    
   122.0       31.98    
   123.0       39.93    
   124.0       49.01    
   125.0       59.11    
   126.0       70.05    
   127.0       81.62    
   128.0       93.58    
   129.0       105.6    
   130.0       117.5    
   131.0       128.8    
   132.0       139.3    
   133.0       148.6    
   134.0       156.3    
   135.0       162.2    
   136.0       166.1    
   137.0       167.7    
   138.0       166.8    
   139.0       163.6    
   140.0       157.8    
   141.0       149.7    
   142.0       139.4    
   143.0       127.3    
   144.0       113.6    
   145.0       98.88    
   146.0       83.67    
   147.0       68.58    
   148.0       54.28    
   149.0       41.50    
   150.0       30.97    
   151.0       23.47    
   152.0       19.72    
   153.0       20.44    
   154.0       26.29    
   155.0       37.85    
   156.0       55.61    
   157.0       79.95    
   158.0       111.1    
   159.0       149.2    
   160.0       194.2    
   161.0       245.9    
   162.0       304.0    
   163.0       367.8    
   164.0       436.8    
   165.0       510.2    
   166.0       586.9    
   167.0       665.9    
   168.0       746.1    
   169.0       826.2    
   170.0       905.0    
   171.0       981.2    
   172.0       1053.    
   173.0       1121.    
   174.0       1182.    
   175.0       1235.    
   176.0       1280.    
   177.0       1316.    
   178.0       1342.    
   179.0       1358.    
   180.0       1364.    
 END
