# 178 angles,  1 tensor ranks for 0=projectile
@subtitle   "7Li + d g.s with DA1p OMP;"                                                    
@legend ON
@legend x1 0.2
@legend y1 0.8
@g0 type LOGY
@yaxis ticklabel format power
@xaxis label "Scattering angle (degrees)"
@yaxis label "Cross section (mb/sr)"
@legend string   0 "Partition=  1 Excit=  1 near/far= 1"
#legend string   0 "Lab energy =   14.5700"
@s0 linestyle   1
#  Theta       sigma       iT11        T20         T21         T22         Kyy for projectile
   3.000      0.1715E+06
   4.000      0.5160E+05
   5.000      0.2060E+05
   6.000      0.1012E+05
   7.000       5903.    
   8.000       3967.    
   9.000       2975.    
   10.00       2413.    
   11.00       2061.    
   12.00       1816.    
   13.00       1629.    
   14.00       1476.    
   15.00       1343.    
   16.00       1222.    
   17.00       1110.    
   18.00       1006.    
   19.00       906.8    
   20.00       813.8    
   21.00       726.2    
   22.00       644.0    
   23.00       567.4    
   24.00       496.5    
   25.00       431.1    
   26.00       371.4    
   27.00       317.3    
   28.00       268.6    
   29.00       225.3    
   30.00       187.0    
   31.00       153.5    
   32.00       124.5    
   33.00       99.80    
   34.00       78.94    
   35.00       61.59    
   36.00       47.42    
   37.00       36.06    
   38.00       27.17    
   39.00       20.42    
   40.00       15.48    
   41.00       12.08    
   42.00       9.918    
   43.00       8.760    
   44.00       8.377    
   45.00       8.568    
   46.00       9.162    
   47.00       10.01    
   48.00       10.99    
   49.00       11.99    
   50.00       12.95    
   51.00       13.79    
   52.00       14.48    
   53.00       14.98    
   54.00       15.28    
   55.00       15.37    
   56.00       15.26    
   57.00       14.96    
   58.00       14.49    
   59.00       13.87    
   60.00       13.12    
   61.00       12.27    
   62.00       11.35    
   63.00       10.38    
   64.00       9.378    
   65.00       8.376    
   66.00       7.391    
   67.00       6.441    
   68.00       5.541    
   69.00       4.704    
   70.00       3.940    
   71.00       3.256    
   72.00       2.655    
   73.00       2.142    
   74.00       1.715    
   75.00       1.374    
   76.00       1.115    
   77.00      0.9340    
   78.00      0.8255    
   79.00      0.7831    
   80.00      0.7999    
   81.00      0.8686    
   82.00      0.9820    
   83.00       1.132    
   84.00       1.313    
   85.00       1.516    
   86.00       1.735    
   87.00       1.965    
   88.00       2.198    
   89.00       2.432    
   90.00       2.660    
   91.00       2.878    
   92.00       3.085    
   93.00       3.277    
   94.00       3.451    
   95.00       3.607    
   96.00       3.743    
   97.00       3.859    
   98.00       3.953    
   99.00       4.027    
   100.0       4.080    
   101.0       4.113    
   102.0       4.127    
   103.0       4.123    
   104.0       4.103    
   105.0       4.066    
   106.0       4.014    
   107.0       3.950    
   108.0       3.873    
   109.0       3.785    
   110.0       3.688    
   111.0       3.583    
   112.0       3.470    
   113.0       3.351    
   114.0       3.226    
   115.0       3.098    
   116.0       2.966    
   117.0       2.831    
   118.0       2.695    
   119.0       2.557    
   120.0       2.419    
   121.0       2.281    
   122.0       2.143    
   123.0       2.007    
   124.0       1.872    
   125.0       1.740    
   126.0       1.611    
   127.0       1.485    
   128.0       1.362    
   129.0       1.245    
   130.0       1.132    
   131.0       1.025    
   132.0      0.9235    
   133.0      0.8289    
   134.0      0.7414    
   135.0      0.6616    
   136.0      0.5901    
   137.0      0.5273    
   138.0      0.4738    
   139.0      0.4301    
   140.0      0.3966    
   141.0      0.3737    
   142.0      0.3618    
   143.0      0.3612    
   144.0      0.3721    
   145.0      0.3948    
   146.0      0.4292    
   147.0      0.4755    
   148.0      0.5336    
   149.0      0.6033    
   150.0      0.6844    
   151.0      0.7766    
   152.0      0.8794    
   153.0      0.9922    
   154.0       1.115    
   155.0       1.246    
   156.0       1.385    
   157.0       1.531    
   158.0       1.683    
   159.0       1.841    
   160.0       2.002    
   161.0       2.167    
   162.0       2.332    
   163.0       2.499    
   164.0       2.665    
   165.0       2.828    
   166.0       2.989    
   167.0       3.144    
   168.0       3.294    
   169.0       3.437    
   170.0       3.572    
   171.0       3.698    
   172.0       3.813    
   173.0       3.917    
   174.0       4.009    
   175.0       4.088    
   176.0       4.154    
   177.0       4.206    
   178.0       4.243    
   179.0       4.266    
   180.0       4.273    
 END
@legend string   1 "Partition=  1 Excit=  2 near/far= 1"
#legend string   0 "Lab energy =   14.5700"
@s1 linestyle   2
#  Theta       sigma       iT11        T20         T21         T22         Kyy for projectile
   3.000      0.6437    
   4.000      0.6413    
   5.000      0.6282    
   6.000      0.6056    
   7.000      0.5793    
   8.000      0.5569    
   9.000      0.5444    
   10.00      0.5452    
   11.00      0.5613    
   12.00      0.5940    
   13.00      0.6450    
   14.00      0.7158    
   15.00      0.8074    
   16.00      0.9194    
   17.00       1.050    
   18.00       1.197    
   19.00       1.359    
   20.00       1.532    
   21.00       1.715    
   22.00       1.903    
   23.00       2.091    
   24.00       2.275    
   25.00       2.450    
   26.00       2.612    
   27.00       2.759    
   28.00       2.887    
   29.00       2.994    
   30.00       3.076    
   31.00       3.132    
   32.00       3.159    
   33.00       3.159    
   34.00       3.133    
   35.00       3.080    
   36.00       3.004    
   37.00       2.905    
   38.00       2.786    
   39.00       2.649    
   40.00       2.497    
   41.00       2.335    
   42.00       2.166    
   43.00       1.993    
   44.00       1.819    
   45.00       1.646    
   46.00       1.478    
   47.00       1.318    
   48.00       1.167    
   49.00       1.027    
   50.00      0.9005    
   51.00      0.7877    
   52.00      0.6891    
   53.00      0.6050    
   54.00      0.5354    
   55.00      0.4803    
   56.00      0.4389    
   57.00      0.4103    
   58.00      0.3935    
   59.00      0.3870    
   60.00      0.3895    
   61.00      0.3997    
   62.00      0.4163    
   63.00      0.4377    
   64.00      0.4627    
   65.00      0.4898    
   66.00      0.5179    
   67.00      0.5459    
   68.00      0.5728    
   69.00      0.5977    
   70.00      0.6200    
   71.00      0.6392    
   72.00      0.6547    
   73.00      0.6664    
   74.00      0.6741    
   75.00      0.6779    
   76.00      0.6777    
   77.00      0.6738    
   78.00      0.6664    
   79.00      0.6557    
   80.00      0.6423    
   81.00      0.6266    
   82.00      0.6089    
   83.00      0.5897    
   84.00      0.5696    
   85.00      0.5488    
   86.00      0.5278    
   87.00      0.5071    
   88.00      0.4870    
   89.00      0.4679    
   90.00      0.4499    
   91.00      0.4334    
   92.00      0.4185    
   93.00      0.4055    
   94.00      0.3944    
   95.00      0.3854    
   96.00      0.3784    
   97.00      0.3733    
   98.00      0.3703    
   99.00      0.3691    
   100.0      0.3697    
   101.0      0.3720    
   102.0      0.3757    
   103.0      0.3809    
   104.0      0.3872    
   105.0      0.3945    
   106.0      0.4025    
   107.0      0.4112    
   108.0      0.4202    
   109.0      0.4294    
   110.0      0.4385    
   111.0      0.4475    
   112.0      0.4562    
   113.0      0.4643    
   114.0      0.4717    
   115.0      0.4784    
   116.0      0.4841    
   117.0      0.4888    
   118.0      0.4924    
   119.0      0.4948    
   120.0      0.4959    
   121.0      0.4958    
   122.0      0.4943    
   123.0      0.4914    
   124.0      0.4873    
   125.0      0.4818    
   126.0      0.4750    
   127.0      0.4670    
   128.0      0.4578    
   129.0      0.4474    
   130.0      0.4360    
   131.0      0.4236    
   132.0      0.4103    
   133.0      0.3961    
   134.0      0.3813    
   135.0      0.3658    
   136.0      0.3498    
   137.0      0.3333    
   138.0      0.3166    
   139.0      0.2996    
   140.0      0.2826    
   141.0      0.2655    
   142.0      0.2486    
   143.0      0.2318    
   144.0      0.2153    
   145.0      0.1992    
   146.0      0.1836    
   147.0      0.1684    
   148.0      0.1539    
   149.0      0.1400    
   150.0      0.1268    
   151.0      0.1143    
   152.0      0.1026    
   153.0      0.9168E-01
   154.0      0.8160E-01
   155.0      0.7234E-01
   156.0      0.6391E-01
   157.0      0.5629E-01
   158.0      0.4948E-01
   159.0      0.4346E-01
   160.0      0.3819E-01
   161.0      0.3365E-01
   162.0      0.2979E-01
   163.0      0.2657E-01
   164.0      0.2394E-01
   165.0      0.2185E-01
   166.0      0.2024E-01
   167.0      0.1907E-01
   168.0      0.1827E-01
   169.0      0.1779E-01
   170.0      0.1757E-01
   171.0      0.1755E-01
   172.0      0.1769E-01
   173.0      0.1793E-01
   174.0      0.1824E-01
   175.0      0.1858E-01
   176.0      0.1890E-01
   177.0      0.1918E-01
   178.0      0.1940E-01
   179.0      0.1954E-01
   180.0      0.1959E-01
 END
